wavelength[m],n,k
2.34e-07,1.4439,3.0094
2.3600000000000002e-07,1.4745,3.0365
2.3800000000000001e-07,1.4214,3.0466
2.4000000000000003e-07,1.4135,3.0846
2.42e-07,1.4311,3.1436
2.44e-07,1.4413,3.1806
2.46e-07,1.4565,3.2316
2.48e-07,1.4725,3.2861
2.5000000000000004e-07,1.488,3.3434
2.5200000000000003e-07,1.5069,3.3944
2.54e-07,1.5292,3.4555
2.56e-07,1.5517,3.5208
2.58e-07,1.5758,3.5836
2.6e-07,1.6083,3.6603
2.62e-07,1.6471,3.7289
2.6400000000000003e-07,1.6836,3.8062
2.66e-07,1.7239,3.8845
2.68e-07,1.7826,3.9765
2.7e-07,1.8416,4.0685
2.72e-07,1.9017,4.1721
2.74e-07,1.9987,4.2924
2.7600000000000004e-07,2.1073,4.4122
2.7800000000000003e-07,2.2629,4.5452
2.8e-07,2.4683,4.6646
2.82e-07,2.7195,4.731
2.84e-07,2.996,4.7306
2.86e-07,3.2476,4.6562
2.8800000000000004e-07,3.4605,4.5297
2.9000000000000003e-07,3.6244,4.3853
2.92e-07,3.7564,4.2339
2.94e-07,3.8306,4.0871
2.96e-07,3.891,3.9535
2.98e-07,3.9256,3.8356
3.0000000000000004e-07,3.9565,3.7249
3.0200000000000003e-07,3.9728,3.627
3.04e-07,3.9864,3.5408
3.06e-07,3.9894,3.4657
3.08e-07,3.9929,3.3984
3.1e-07,4.0015,3.3329
3.1200000000000004e-07,4.0096,3.273
3.1400000000000003e-07,4.0159,3.2218
3.16e-07,4.0085,3.1796
3.18e-07,4.0163,3.1352
3.2e-07,4.0193,3.0978
3.22e-07,4.0243,3.0619
3.2400000000000004e-07,4.031,3.0247
3.2600000000000003e-07,4.0312,2.9926
3.28e-07,4.0351,2.9603
3.3e-07,4.0379,2.9323
3.32e-07,4.0464,2.9043
3.34e-07,4.0566,2.8758
3.3600000000000004e-07,4.0557,2.8527
3.3800000000000004e-07,4.0636,2.8276
3.4000000000000003e-07,4.0665,2.8022
3.42e-07,4.0765,2.779
3.44e-07,4.0819,2.7578
3.46e-07,4.0819,2.7396
3.4800000000000005e-07,4.0907,2.7195
3.5000000000000004e-07,4.1006,2.697
3.5200000000000003e-07,4.1065,2.6787
3.54e-07,4.1117,2.6629
3.56e-07,4.1178,2.6453
3.58e-07,4.1275,2.6269
3.6000000000000005e-07,4.1371,2.6095
3.6200000000000004e-07,4.1467,2.5915
3.6400000000000003e-07,4.1608,2.5696
3.66e-07,4.1717,2.5526
3.68e-07,4.1843,2.5325
3.7e-07,4.1896,2.5142
3.7200000000000005e-07,4.2013,2.4944
3.7400000000000004e-07,4.2108,2.4715
3.7600000000000003e-07,4.2227,2.4462
3.78e-07,4.23,2.423
3.8e-07,4.2318,2.4005
3.82e-07,4.2383,2.3754
3.8400000000000005e-07,4.2381,2.3551
3.8600000000000004e-07,4.2418,2.332
3.8800000000000003e-07,4.2446,2.3086
3.9e-07,4.2467,2.2851
3.92e-07,4.2454,2.2632
3.94e-07,4.2385,2.2386
3.96e-07,4.2335,2.2184
3.9800000000000004e-07,4.2308,2.1954
4.0000000000000003e-07,4.2228,2.1806
4.02e-07,4.2153,2.1653
4.04e-07,4.2033,2.1515
4.06e-07,4.1931,2.1396
4.08e-07,4.1808,2.1295
4.1000000000000004e-07,4.1695,2.1223
4.1200000000000004e-07,4.1596,2.1162
4.1400000000000003e-07,4.1554,2.1081
4.16e-07,4.1457,2.1058
4.18e-07,4.1384,2.1015
4.2e-07,4.1304,2.1018
4.2200000000000005e-07,4.1253,2.102
4.2400000000000004e-07,4.1197,2.1035
4.2600000000000003e-07,4.1012,2.1108
4.28e-07,4.0974,2.1128
4.3e-07,4.0989,2.1156
4.32e-07,4.0966,2.1219
4.3400000000000005e-07,4.0951,2.1272
4.3600000000000004e-07,4.0971,2.1317
4.3800000000000003e-07,4.0996,2.1365
4.4e-07,4.1019,2.1434
4.42e-07,4.1036,2.1498
4.44e-07,4.1063,2.1574
4.4600000000000005e-07,4.1114,2.1628
4.4800000000000004e-07,4.1144,2.1706
4.5000000000000003e-07,4.1211,2.1767
4.52e-07,4.127636,2.184176
4.54e-07,4.13457,2.191652
4.56e-07,4.141945,2.19916
4.5800000000000005e-07,4.149807,2.206732
4.6000000000000004e-07,4.1582,2.2144
4.6200000000000003e-07,4.167253,2.222151
4.64e-07,4.17683,2.230114
4.66e-07,4.18674,2.238636
4.68e-07,4.197073,2.247536
4.7000000000000005e-07,4.2082,2.2561
4.7200000000000004e-07,4.220933,2.263174
4.7400000000000004e-07,4.234254,2.269823
4.7600000000000003e-07,4.247118,2.27659
4.78e-07,4.259701,2.283649
4.800000000000001e-07,4.2734,2.2908
4.82e-07,4.290498,2.297813
4.84e-07,4.308579,2.305142
4.86e-07,4.325988,2.31347
4.88e-07,4.342535,2.322589
4.900000000000001e-07,4.3595,2.3314
4.92e-07,4.377945,2.338238
4.940000000000001e-07,4.397298,2.344621
4.96e-07,4.417413,2.351455
4.98e-07,4.438335,2.358846
5.000000000000001e-07,4.4603,2.3661
5.02e-07,4.483365,2.372653
5.040000000000001e-07,4.507851,2.378786
5.06e-07,4.534374,2.384424
5.08e-07,4.562793,2.389668
5.1e-07,4.5922,2.3948
5.12e-07,4.620941,2.400651
5.140000000000001e-07,4.650912,2.406043
5.16e-07,4.68337,2.410428
5.180000000000001e-07,4.718597,2.41328
5.2e-07,4.7559,2.4141
5.22e-07,4.795597,2.411922
5.24e-07,4.836364,2.407207
5.26e-07,4.87682,2.400658
5.280000000000001e-07,4.916746,2.391585
5.3e-07,4.9571,2.3779
5.32e-07,5.000636,2.355421
5.34e-07,5.042621,2.328747
5.36e-07,5.07928,2.300373
5.380000000000001e-07,5.109692,2.271414
5.4e-07,5.1358,2.2416
5.420000000000001e-07,5.157752,2.2107
5.44e-07,5.17684,2.180537
5.46e-07,5.194373,2.153077
5.48e-07,5.210897,2.128698
5.5e-07,5.2262,2.1062
5.520000000000001e-07,5.239881,2.084548
5.54e-07,5.253318,2.064673
5.560000000000001e-07,5.267645,2.047312
5.58e-07,5.283356,2.032344
5.6e-07,5.3003,2.0188
5.620000000000001e-07,5.31807,2.005531
5.64e-07,5.338087,1.993289
5.660000000000001e-07,5.361342,1.983061
5.68e-07,5.388521,1.974154
5.7e-07,5.42,1.9642
5.72e-07,5.45774,1.952152
5.74e-07,5.49921,1.935448
5.760000000000001e-07,5.543649,1.910805
5.78e-07,5.58962,1.877345
5.800000000000001e-07,5.635,1.8366
5.82e-07,5.677722,1.788188
5.84e-07,5.716629,1.73395
5.860000000000001e-07,5.749869,1.674792
5.88e-07,5.776402,1.612074
5.900000000000001e-07,5.796,1.5476
5.92e-07,5.80672,1.483665
5.94e-07,5.810736,1.420318
5.96e-07,5.808681,1.358223
5.98e-07,5.801651,1.298238
6.000000000000001e-07,5.7912,1.2414
6.02e-07,5.780019,1.190149
6.040000000000001e-07,5.766506,1.142239
6.06e-07,5.749789,1.096306
6.08e-07,5.730266,1.052204
6.100000000000001e-07,5.7096,1.011
6.12e-07,5.68978,0.973908
6.140000000000001e-07,5.669784,0.939777
6.16e-07,5.649618,0.908093
6.180000000000001e-07,5.629149,0.878578
6.2e-07,5.6081,0.8512
6.22e-07,5.585886,0.826176
6.240000000000001e-07,5.563119,0.80256
6.26e-07,5.53969,0.779178
6.280000000000001e-07,5.516167,0.756051
6.3e-07,5.4938,0.7344
6.32e-07,5.475059,0.715892
6.340000000000001e-07,5.457506,0.698904
6.36e-07,5.439715,0.682617
6.380000000000001e-07,5.421359,0.666697
6.4e-07,5.4032,0.6513
6.420000000000001e-07,5.38576,0.635976
6.44e-07,5.368608,0.621404
6.46e-07,5.351484,0.608313
6.480000000000001e-07,5.334393,0.596615
6.5e-07,5.3176,0.5854
6.520000000000001e-07,5.301137,0.573435
6.54e-07,5.285357,0.561794
6.56e-07,5.271118,0.551157
6.58e-07,5.25806,0.541522
6.6e-07,5.2446,0.5322
6.620000000000001e-07,5.227747,0.52218
6.64e-07,5.21085,0.512544
6.660000000000001e-07,5.196377,0.504198
6.68e-07,5.184524,0.497067
6.7e-07,5.1732,0.4901
6.720000000000001e-07,5.160223,0.481843
6.74e-07,5.147297,0.473639
6.760000000000001e-07,5.135287,0.466297
6.78e-07,5.124263,0.459918
6.800000000000001e-07,5.1135,0.4539
6.82e-07,5.102237,0.447815
6.84e-07,5.091082,0.441798
6.860000000000001e-07,5.080353,0.43569
6.88e-07,5.070079,0.429561
6.900000000000001e-07,5.06,0.4237
6.92e-07,5.050006,0.418719
6.94e-07,5.039971,0.413871
6.960000000000001e-07,5.029572,0.408502
6.98e-07,5.018887,0.402641
7.000000000000001e-07,5.0084,0.397
7.02e-07,4.998623,0.392466
7.040000000000001e-07,4.989346,0.388307
7.06e-07,4.980708,0.384164
7.08e-07,4.972608,0.37996
7.100000000000001e-07,4.9647,0.3759
7.12e-07,4.956077,0.372266
7.140000000000001e-07,4.947978,0.368655
7.16e-07,4.941761,0.364644
7.18e-07,4.937183,0.360284
7.200000000000001e-07,4.9324,0.3561
7.22e-07,4.924953,0.352711
7.240000000000001e-07,4.916832,0.349695
7.26e-07,4.908943,0.347099
7.280000000000001e-07,4.901533,0.344699
7.3e-07,4.8942,0.342
7.32e-07,4.886884,0.337929
7.340000000000001e-07,4.879472,0.333662
7.36e-07,4.871481,0.32994
7.380000000000001e-07,4.863202,0.326944
7.4e-07,4.8557,0.3243
7.420000000000001e-07,4.8512,0.321974
7.440000000000001e-07,4.847068,0.319737
7.46e-07,4.841253,0.317324
7.480000000000001e-07,4.83363,0.314668
7.5e-07,4.826,0.3119
7.520000000000001e-07,4.820351,0.309013
7.54e-07,4.815059,0.306122
7.56e-07,4.8093,0.303315
7.580000000000001e-07,4.802953,0.300658
7.6e-07,4.7966,0.2982
7.620000000000001e-07,4.790689,0.296076
7.64e-07,4.784982,0.294176
7.660000000000001e-07,4.779423,0.292583
7.680000000000001e-07,4.77403,0.29115
7.7e-07,4.7689,0.2895
7.720000000000001e-07,4.764594,0.286989
7.74e-07,4.760088,0.28417
7.760000000000001e-07,4.754064,0.281202
7.78e-07,4.746804,0.278271
7.8e-07,4.7402,0.2756
7.820000000000001e-07,4.737434,0.273802
7.84e-07,4.735107,0.272205
7.860000000000001e-07,4.730729,0.270288
7.88e-07,4.724178,0.268048
7.900000000000001e-07,4.7177,0.266
7.92e-07,4.713747,0.264865
7.94e-07,4.710405,0.263902
7.960000000000001e-07,4.706789,0.262764
7.98e-07,4.702734,0.261248
8.000000000000001e-07,4.6988,0.2593
8.02e-07,4.695668,0.255885
8.04e-07,4.692504,0.252818
8.060000000000001e-07,4.688604,0.251963
8.08e-07,4.683968,0.253274
8.100000000000001e-07,4.6793,0.2548
8.12e-07,4.675669,0.254752
8.140000000000001e-07,4.67189,0.253824
8.16e-07,4.666806,0.251667
8.18e-07,4.660641,0.248438
8.200000000000001e-07,4.655,0.2448
8.22e-07,4.65206,0.24101
8.240000000000001e-07,4.650033,0.237803
8.26e-07,4.648517,0.236279
8.280000000000001e-07,4.646865,0.236502
8.300000000000001e-07,4.6442,0.2375
8.32e-07,4.63767,0.238868
8.340000000000001e-07,4.630989,0.240044
8.36e-07,4.625783,0.240516
8.380000000000001e-07,4.623679,0.239772
8.4e-07,4.6263,0.2373
